           0
   8   0.00  31  2   2.260
  39    0
  40    0
  height (km)  press (atm)   temp (K)    VMR gas  1   VMR gas  2   VMR gas
       -52.124  0.49346E+01     127.5000  0.83000E+00  0.15000E+00
       -42.921  0.39477E+01     119.1000  0.83000E+00  0.15000E+00
       -31.955  0.29608E+01     108.6000  0.83000E+00  0.15000E+00
       -18.377  0.19837E+01      93.7000  0.83000E+00  0.15000E+00
       -10.178  0.15080E+01      84.6000  0.83000E+00  0.15000E+00
         0.000  0.10264E+01      73.0000  0.83000E+00  0.15000E+00
         8.304  0.71848E+00      65.7000  0.83000E+00  0.15000E+00
        16.172  0.49512E+00      60.1000  0.83000E+00  0.15000E+00
        25.161  0.31187E+00      55.6000  0.83000E+00  0.15000E+00
        32.691  0.20714E+00      53.8000  0.83000E+00  0.15000E+00
        43.991  0.11054E+00      53.1000  0.83000E+00  0.15000E+00
        49.657  0.80607E-01      53.4000  0.83000E+00  0.15000E+00
        58.512  0.49445E-01      54.1000  0.83000E+00  0.15000E+00
        67.114  0.31206E-01      56.7000  0.83000E+00  0.15000E+00
        76.218  0.19689E-01      60.4000  0.83000E+00  0.15000E+00
        83.015  0.14310E-01      65.7000  0.83000E+00  0.15000E+00
        91.679  0.98623E-02      72.0000  0.83000E+00  0.15000E+00
       101.494  0.69085E-02      91.0000  0.83000E+00  0.15000E+00
       112.222  0.49475E-02      98.8000  0.83000E+00  0.15000E+00
       172.259  0.98692E-03     121.0000  0.83000E+00  0.15000E+00
       225.464  0.29608E-03     138.5000  0.83000E+00  0.15000E+00
       280.449  0.98692E-04     154.1000  0.83000E+00  0.15000E+00
       317.801  0.49346E-04     159.5000  0.83000E+00  0.15000E+00
       369.322  0.19738E-04     166.7000  0.83000E+00  0.15000E+00
       409.554  0.98692E-05     168.6000  0.83000E+00  0.15000E+00
       504.289  0.19738E-05     170.3000  0.83000E+00  0.15000E+00
       545.834  0.98692E-06     172.1000  0.83000E+00  0.15000E+00
       588.241  0.49346E-06     176.2000  0.83000E+00  0.15000E+00
       620.565  0.29608E-06     182.8000  0.83000E+00  0.15000E+00
       704.599  0.98692E-07     250.0000  0.83000E+00  0.15000E+00
       938.164  0.98692E-08     320.0000  0.83000E+00  0.15000E+00
